--------------------
2016-08-22-13:14:22


Frequency(mHZ)	Signal (dBm)
400000000	-95.000000
400892000	-93.000000
401785000	-100.000000
402678000	-95.000000
403571000	-96.000000
404464000	-92.500000
405357000	-95.500000
406250000	-95.500000
407142000	-94.000000
408035000	-97.000000
408928000	-95.000000
409821000	-97.000000
410714000	-95.000000
411607000	-93.500000
412500000	-97.500000
413392000	-99.500000
414285000	-95.000000
415178000	-94.000000
416071000	-92.500000
416964000	-96.500000
417857000	-97.500000
418750000	-93.000000
419642000	-91.500000
420535000	-93.500000
421428000	-96.000000
422321000	-97.500000
423214000	-95.500000
424107000	-97.500000
425000000	-93.500000
425892000	-91.000000
426785000	-93.500000
427678000	-73.500000
428571000	-75.000000
429464000	-95.000000
430357000	-95.500000
431250000	-90.500000
432142000	-93.500000
433035000	-93.500000
433928000	-95.000000
434821000	-93.500000
435714000	-93.000000
436607000	-94.000000
437500000	-95.000000
438392000	-95.500000
439285000	-93.000000
440178000	-95.000000
441071000	-102.000000
441964000	-98.500000
442857000	-99.500000
443750000	-97.000000
444642000	-94.500000
445535000	-84.000000
446428000	-90.500000
447321000	-102.000000
448214000	-97.500000
449107000	-94.000000
450000000	-81.000000
450892000	-94.000000
451785000	-97.000000
452678000	-94.500000
453571000	-96.000000
454464000	-97.000000
455357000	-95.500000
456250000	-93.500000
457142000	-91.500000
458035000	-98.000000
458928000	-92.000000
459821000	-92.500000
460714000	-96.500000
461607000	-94.000000
462500000	-99.000000
463392000	-96.000000
464285000	-99.500000
465178000	-97.000000
466071000	-95.500000
466964000	-96.000000
467857000	-98.500000
468750000	-88.000000
469642000	-91.500000
470535000	-94.000000
471428000	-97.000000
472321000	-92.000000
473214000	-93.000000
474107000	-93.500000
475000000	-93.500000
475892000	-92.500000
476785000	-93.000000
477678000	-96.000000
478571000	-91.500000
479464000	-88.500000
480357000	-95.000000
481250000	-86.500000
482142000	-95.000000
483035000	-98.500000
483928000	-90.000000
484821000	-95.500000
485714000	-95.500000
486607000	-92.000000
487500000	-92.000000
488392000	-92.500000
489285000	-90.500000
490178000	-89.500000
491071000	-93.000000
491964000	-89.500000
492857000	-94.000000
493750000	-89.000000
494642000	-94.000000
495535000	-92.000000
496428000	-96.000000
497321000	-90.500000
498214000	-91.000000
499107000	-93.500000
